### Grasense measure data file ###
#
#   Measure Mode : VDS = 0.050 V  × 16 oversample   
#   Sweep variable : VGS
#   Sweep points : 121
#   Active channels : 12
#  
#  
#
#       
#       
#       
#
#     
#       
#    
#
# (V)	A1 (µA) 	A2 (µA) 	A3 (µA) 	A4 (µA) 	A5 (µA) 	A6 (µA) 	B1 (µA) 	B2 (µA) 	B3 (µA) 	B4 (µA) 	B5 (µA) 	B6 (µA) 
0.0000	 81.1215193	 75.7879561	 73.1355870	 87.6279205	 76.5325153	 76.6783758	 60.2699207	 72.2179773	 70.8520867	 79.2501344	 72.7240655	 74.2571031
0.0100	 81.1346010	 76.1225288	 73.3907632	 87.4647110	 76.4171327	 76.5323727	 60.4798942	 72.3299954	 71.0092747	 79.0500081	 72.7399736	 74.1717673
0.0200	 80.7801040	 75.9600746	 73.2463793	 86.9368588	 76.0665176	 76.1574661	 60.3036790	 72.1069016	 70.9253339	 78.6317464	 72.5328545	 73.8851757
0.0300	 80.3149497	 75.6286163	 72.9255678	 86.3071202	 75.6126312	 75.7087380	 60.0620343	 71.7677763	 70.7033753	 78.0705236	 72.2117134	 73.4986599
0.0400	 79.7684964	 75.1677357	 72.5220651	 85.5742536	 75.0764897	 75.1878718	 59.8190923	 71.3385965	 70.3991862	 77.4868344	 71.8130709	 73.0184491
0.0500	 79.1514266	 74.6304286	 72.0096989	 84.7696334	 74.4944434	 74.5977815	 59.5277747	 70.8315982	 70.0096604	 76.8232616	 71.3089215	 72.4731793
0.0600	 78.4696708	 74.0217107	 71.4120793	 83.9072118	 73.8636242	 73.9503047	 59.0721671	 70.2443874	 69.5505328	 76.0809689	 70.7574653	 71.8666033
0.0700	 77.7489101	 73.3545075	 70.7701857	 82.9993333	 73.1703406	 73.2661685	 58.5712798	 69.6226126	 69.0397646	 75.3110222	 70.1551136	 71.2370730
0.0800	 76.9919361	 72.6463685	 70.0760137	 82.0410099	 72.4564217	 72.5367641	 58.1275826	 68.9574991	 68.5031397	 74.4563473	 69.4979232	 70.5512392
0.0900	 76.1914275	 71.8769247	 69.3284338	 81.0452311	 71.6911157	 71.7703245	 57.6636068	 68.2394525	 67.8948351	 73.5983689	 68.7977945	 69.8192717
0.1000	 75.3391309	 71.0673417	 68.5386768	 80.0191574	 70.8970409	 70.9648263	 57.0564373	 67.4683337	 67.2486324	 72.6696936	 68.0435076	 69.0276692
0.1100	 74.4534194	 70.2151001	 67.7030767	 78.9467033	 70.0637698	 70.1244956	 56.4066702	 66.6823425	 66.5620387	 71.7134631	 67.2536687	 68.2270461
0.1200	 73.5403197	 69.3359881	 66.8456364	 77.8271839	 69.1985483	 69.2562564	 55.8175474	 65.8473444	 65.8481384	 70.7451007	 66.4335065	 67.3922719
0.1300	 72.5859601	 68.4124770	 65.9269993	 76.6832645	 68.3108997	 68.3456029	 55.2308267	 64.9783385	 65.0862266	 69.7096686	 65.5746121	 66.5141215
0.1400	 71.5986238	 67.4431305	 64.9779488	 75.4946612	 67.3816305	 67.4080878	 54.5216592	 64.0883296	 64.2879629	 68.6316320	 64.6723452	 65.5876360
0.1500	 70.5741322	 66.4471399	 63.9990008	 74.2795001	 66.4250729	 66.4376298	 53.7375373	 63.1460032	 63.4569979	 67.5186772	 63.7344904	 64.6472690
0.1600	 69.5212498	 65.4181903	 62.9899003	 73.0405073	 65.4296801	 65.4379648	 53.0217587	 62.1923846	 62.5974936	 66.3967388	 62.7806753	 63.6809274
0.1700	 68.4330484	 64.3546418	 61.9472940	 71.7633152	 64.4133796	 64.4055670	 52.3321079	 61.2000966	 61.7006483	 65.2244338	 61.7752923	 62.6628830
0.1800	 67.3078806	 63.2546208	 60.8588564	 70.4441202	 63.3629952	 63.3345325	 51.5270655	 60.1724531	 60.7762134	 64.0211028	 60.7274640	 61.6209533
0.1900	 66.1532881	 62.1217724	 59.7456288	 69.0960425	 62.2878734	 62.2327402	 50.6344376	 59.1065211	 59.8117440	 62.7951916	 59.6464170	 60.5470613
0.2000	 64.9658010	 60.9689195	 58.6080661	 67.7289517	 61.1806893	 61.1041348	 49.7979795	 58.0369436	 58.8298137	 61.5252554	 58.5569603	 59.4415793
0.2100	 63.7464694	 59.7861081	 57.4443109	 66.3218204	 60.0432064	 59.9435454	 49.0059463	 56.9146531	 57.8090191	 60.2245035	 57.4187027	 58.3052261
0.2200	 62.4864640	 58.5543773	 56.2309935	 64.8756673	 58.8557738	 58.7357255	 48.0806667	 55.7629241	 56.7286248	 58.8700917	 56.2340365	 57.1214468
0.2300	 61.1835474	 57.2819356	 54.9875288	 63.4015781	 57.6469261	 57.5047798	 47.0805788	 54.5816732	 55.6333349	 57.4915150	 55.0214387	 55.9071655
0.2400	 59.8578613	 55.9971561	 53.7230193	 61.8996365	 56.4120698	 56.2496416	 46.1397769	 53.3793861	 54.5059661	 56.0872612	 53.7880768	 54.6660283
0.2500	 58.4937425	 54.6639445	 52.4227131	 60.3592913	 55.1379219	 54.9430621	 45.2259986	 52.1382887	 53.3359168	 54.6366717	 52.4979882	 53.3815961
0.2600	 57.0841206	 53.2916876	 51.0771778	 58.7714437	 53.8163053	 53.6012684	 44.1778231	 50.8522848	 52.1175068	 53.1422455	 51.1690325	 52.0547613
0.2700	 55.6353590	 51.8850249	 49.7027435	 57.1676636	 52.4676323	 52.2265814	 43.0585647	 49.5504208	 50.8743902	 51.6272967	 49.8115109	 50.7010709
0.2800	 54.1594381	 50.4572064	 48.3054343	 55.5243652	 51.1041438	 50.8209805	 42.0095769	 48.2133303	 49.5998567	 50.0758284	 48.4307608	 49.3242265
0.2900	 52.6338376	 48.9716937	 46.8519729	 53.8374727	 49.6720366	 49.3629649	 40.9636113	 46.8228721	 48.2682381	 48.4638616	 46.9800325	 47.8743327
0.3000	 51.0650580	 47.4560659	 45.3710592	 52.1084644	 48.2033168	 47.8662277	 39.7706902	 45.4044714	 46.8890423	 46.8160285	 45.4874208	 46.3883512
0.3100	 49.4502085	 45.9001284	 43.8541832	 50.3508737	 46.7067885	 46.3436955	 38.5256156	 43.9494824	 45.4896463	 45.1373750	 43.9684658	 44.8760328
0.3200	 47.8158414	 44.3097395	 42.3109938	 48.5678665	 45.1740061	 44.7760553	 37.3295955	 42.4625772	 44.0390917	 43.4143298	 42.4048216	 43.3158691
0.3300	 46.1224932	 42.6722780	 40.7118906	 46.7256751	 43.5887433	 43.1615331	 36.1352214	 40.9275271	 42.5378576	 41.6421140	 40.7873982	 41.6953021
0.3400	 44.3752466	 40.9880381	 39.0757701	 44.8413222	 41.9626694	 41.4919608	 34.7905602	 39.3494566	 40.9760518	 39.8207548	 39.1205793	 40.0362444
0.3500	 42.5954726	 39.2674589	 37.4078749	 42.9293477	 40.2976651	 39.7915415	 33.3921615	 37.7383530	 39.3782070	 37.9770303	 37.4194603	 38.3398984
0.3600	 40.7729071	 37.5097456	 35.7030387	 40.9783718	 38.5840812	 38.0542755	 32.0433822	 36.0856349	 37.7329169	 36.0762857	 35.6765793	 36.5979729
0.3700	 38.9065811	 35.7072889	 33.9565458	 38.9812367	 36.8290549	 36.2674052	 30.6898773	 34.3878350	 36.0391624	 34.1351879	 33.8710631	 34.7980994
0.3800	 36.9928111	 33.8534639	 32.1614611	 36.9338068	 35.0316198	 34.4357530	 29.1913149	 32.6395926	 34.2869564	 32.1633975	 32.0349504	 32.9566745
0.3900	 35.0511639	 31.9772049	 30.3507131	 34.8722127	 33.2081179	 32.5893462	 27.6327017	 30.8699617	 32.5041309	 30.1830320	 30.1706665	 31.1021796
0.4000	 33.0943446	 30.0970997	 28.5333391	 32.7984457	 31.3585132	 30.7125054	 26.1529650	 29.0677101	 30.6957311	 28.1809127	 28.2868720	 29.2145379
0.4100	 31.1157969	 28.1786282	 26.6874012	 30.6829500	 29.4770941	 28.8117974	 24.6605401	 27.2268024	 28.8443943	 26.1680262	 26.3731778	 27.2899322
0.4200	 29.1218736	 26.2560720	 24.8468782	 28.5665640	 27.5885193	 26.9195266	 23.0389522	 25.3680270	 26.9673386	 24.1768902	 24.4697567	 25.3757730
0.4300	 27.1536328	 24.3656170	 23.0446885	 26.4824617	 25.7180138	 25.0622829	 21.4160529	 23.5146058	 25.1126815	 22.2555487	 22.6095529	 23.5007858
0.4400	 25.2588572	 22.5348328	 21.3169649	 24.4556078	 23.8947082	 23.2673290	 19.9262841	 21.6951405	 23.2976976	 20.4322750	 20.8202357	 21.6822461
0.4500	 23.4425775	 20.7910044	 19.6746464	 22.5051039	 22.1367608	 21.5644641	 18.4998783	 19.9132097	 21.5348702	 18.7360948	 19.1245769	 19.9461149
0.4600	 21.7460577	 19.1719024	 18.1749008	 20.6882365	 20.4890572	 20.0031675	 17.0474564	 18.2138405	 19.8896304	 17.2359539	 17.6000848	 18.3734650
0.4700	 20.2514744	 17.7583800	 16.8741390	 19.0669643	 19.0139312	 18.6555366	 15.7377612	 16.6803653	 18.4371835	 16.0048468	 16.3126630	 17.0317713
0.4800	 19.0088311	 16.5910461	 15.8039181	 17.6879026	 17.7567914	 17.5532933	 14.7044864	 15.3379822	 17.2222978	 15.0866472	 15.3104005	 15.9636137
0.4900	 18.0547920	 15.6975004	 14.9898595	 16.5908448	 16.7501525	 16.7371620	 13.9301448	 14.2341159	 16.3004222	 14.5318782	 14.6472629	 15.2252286
0.5000	 17.4370109	 15.1206685	 14.4673101	 15.8276238	 16.0627554	 16.2631535	 13.3391917	 13.4282774	 15.7331140	 14.3933470	 14.3791363	 14.8775427
0.5100	 17.2141012	 14.9006819	 14.2639567	 15.4458383	 15.7388686	 16.1549831	 13.0400113	 12.9732320	 15.5528739	 14.6766380	 14.5202892	 14.9249043
0.5200	 17.3805622	 15.0240025	 14.3640775	 15.4477375	 15.7844866	 16.4024799	 13.1546070	 12.8696852	 15.7509548	 15.3469962	 15.0314902	 15.3355945
0.5300	 17.9089894	 15.4566971	 14.7471489	 15.8257092	 16.1755455	 16.9821897	 13.6056840	 13.1087974	 16.2946198	 16.3467654	 15.8661146	 16.0692860
0.5400	 18.7693036	 16.1598783	 15.3853117	 16.5513317	 16.8896184	 17.8534240	 14.1921579	 13.6709458	 17.1408608	 17.5984353	 16.9529920	 17.0617013
0.5500	 19.8939200	 17.0803412	 16.2191316	 17.5572787	 17.8545197	 18.9397155	 14.9364626	 14.4885867	 18.2047102	 18.9958250	 18.2057439	 18.2296268
0.5600	 21.1994054	 18.1457434	 17.1945558	 18.7634522	 18.9983628	 20.1812698	 15.8940016	 15.5009537	 19.4160758	 20.4749778	 19.5655289	 19.5171290
0.5700	 22.6314666	 19.3175361	 18.2721487	 20.1128063	 20.2776357	 21.5379691	 16.9552145	 16.6624986	 20.7171977	 21.9998963	 20.9945498	 20.8843197
0.5800	 24.1297176	 20.5465247	 19.4063701	 21.5309383	 21.6364306	 22.9491032	 17.9316564	 17.9010041	 22.0559760	 23.5051042	 22.4263855	 22.2628886
0.5900	 25.6366904	 21.7899868	 20.5635068	 22.9555601	 23.0201075	 24.3699561	 18.8599098	 19.1622524	 23.3715696	 24.9556531	 23.8301932	 23.6093818
0.6000	 27.1109368	 23.0185548	 21.7095450	 24.3595343	 24.3920552	 25.7663031	 19.8644333	 20.4198134	 24.6805420	 26.3599600	 25.1972261	 24.9186907
0.6100	 28.5468198	 24.2220201	 22.8424771	 25.7338216	 25.7654546	 27.1473321	 20.8680397	 21.6661558	 25.9675031	 27.7246959	 26.5345881	 26.1959251
0.6200	 29.9380459	 25.3922312	 23.9523250	 27.0720219	 27.1104701	 28.4917849	 21.7545585	 22.9010194	 27.2276461	 29.0473551	 27.8397990	 27.4278718
0.6300	 31.2677097	 26.5075366	 25.0210588	 28.3629085	 28.4119583	 29.7800965	 22.5940968	 24.0971890	 28.4594119	 30.3303733	 29.1014622	 28.6170085
0.6400	 32.5399546	 27.5733116	 26.0469376	 29.6244956	 29.6807659	 31.0262470	 23.5289987	 25.2829326	 29.6787493	 31.6023725	 30.3423926	 29.7896845
0.6500	 33.7596437	 28.5833536	 27.0157199	 30.8574057	 30.9144550	 32.2383086	 24.4988335	 26.4650388	 30.8974514	 32.8687117	 31.5684224	 30.9412832
0.6600	 34.9391656	 29.5570657	 27.9514129	 32.0889616	 32.1276369	 33.4180681	 25.3712304	 27.6409856	 32.1143362	 34.1340079	 32.7863742	 32.0885132
0.6700	 36.0768068	 30.4967388	 28.8501956	 33.3028655	 33.2970437	 34.5659755	 26.2459643	 28.8039070	 33.3106121	 35.3921883	 33.9948639	 33.2190634
0.6800	 37.1842958	 31.4090483	 29.7122163	 34.5204551	 34.4446152	 35.6881022	 27.2304285	 29.9646475	 34.4930572	 36.6721103	 35.2015325	 34.3516992
0.6900	 38.2756332	 32.3127896	 30.5579355	 35.7593968	 35.5921765	 36.8101023	 28.2573411	 31.1508728	 35.6890050	 37.9918534	 36.4164179	 35.5054411
0.7000	 39.3715666	 33.2136902	 31.4118201	 37.0225369	 36.7422379	 37.9379778	 29.1858792	 32.3330347	 36.8555831	 39.3232614	 37.6199623	 36.6596404
0.7100	 40.4709218	 34.1411386	 32.2675100	 38.3193353	 37.8804015	 39.0643218	 30.1171535	 33.4950302	 38.0097075	 40.6574505	 38.8145587	 37.8079521
0.7200	 41.5686691	 35.0679053	 33.1417245	 39.6469867	 39.0075443	 40.1862836	 31.1406397	 34.6592762	 39.1385754	 42.0128010	 40.0012369	 38.9689260
0.7300	 42.6892427	 36.0355395	 34.0562426	 41.0126504	 40.1791853	 41.3500523	 32.1744544	 35.8430744	 40.2654721	 43.4125650	 41.1791244	 40.1487995
0.7400	 43.8462499	 37.0684405	 35.0175547	 42.4356462	 41.3675978	 42.5255482	 33.1075045	 37.0262422	 41.3695503	 44.8028051	 42.3446247	 41.3315655
0.7500	 45.0097810	 38.1121919	 36.0173038	 43.8693596	 42.5529066	 43.7107961	 34.0109772	 38.1894223	 42.4516484	 46.1622914	 43.4892835	 42.5005281
0.7600	 46.1930388	 39.2062086	 37.0605905	 45.3163969	 43.7589060	 44.8953607	 35.0197565	 39.3609155	 43.5331786	 47.5502121	 44.6282387	 43.6880442
0.7700	 47.4072842	 40.3288025	 38.1427180	 46.7882193	 44.9835261	 46.0870333	 36.0326473	 40.5571649	 44.6200786	 48.9036015	 45.7653643	 44.8933569
0.7800	 48.6513423	 41.5160666	 39.2735783	 48.2838797	 46.2128425	 47.2962480	 36.9436633	 41.7510843	 45.6893740	 50.2728942	 46.8827006	 46.0841642
0.7900	 49.8799418	 42.7054568	 40.4269290	 49.7412840	 47.4261824	 48.4593694	 37.8174944	 42.9268589	 46.7417114	 51.5902431	 47.9679139	 47.2544019
0.8000	 51.1025807	 43.8860241	 41.5822076	 51.1879272	 48.6161834	 49.6023588	 38.7763351	 44.0958363	 47.7758945	 52.8706165	 49.0575248	 48.4160234
0.8100	 52.3235050	 45.0895742	 42.7638919	 52.6283812	 49.8035157	 50.7435888	 39.7468355	 45.2755963	 48.8072739	 54.1554541	 50.1301061	 49.5820656
0.8200	 53.5491671	 46.2935836	 43.9405045	 54.0583700	 50.9677235	 51.8496323	 40.5866511	 46.4290032	 49.8025044	 55.3933384	 51.1855706	 50.7087282
0.8300	 54.7476030	 47.4808827	 45.1131699	 55.4421032	 52.1009424	 52.9147116	 41.3940997	 47.5506116	 50.7968045	 56.5952222	 52.1940207	 51.7991997
0.8400	 55.9074581	 48.6361909	 46.2666330	 56.7802365	 53.2017663	 53.9419308	 42.2715225	 48.6445366	 51.7536548	 57.8006984	 53.1952615	 52.8745680
0.8500	 57.0579257	 49.7938044	 47.4229719	 58.1168435	 54.2840070	 54.9588164	 43.1689772	 49.7380058	 52.7030444	 58.9628184	 54.1824977	 53.9390453
0.8600	 58.1838646	 50.9267635	 48.5581338	 59.4368035	 55.3345048	 55.9523985	 43.9208032	 50.7995465	 53.6070756	 60.1020696	 55.1471284	 54.9661029
0.8700	 59.2907192	 52.0561966	 49.6760058	 60.6985711	 56.3567510	 56.8818158	 44.6331974	 51.8103564	 54.5043882	 61.1833319	 56.0586451	 55.9510108
0.8800	 60.3490461	 53.1541395	 50.7539908	 61.9167472	 57.3272004	 57.8033497	 45.4276815	 52.8203915	 55.3592271	 62.2731544	 56.9686920	 56.9218139
0.8900	 61.3953259	 54.2252320	 51.8219130	 63.1216441	 58.2898212	 58.7062019	 46.2310449	 53.8036257	 56.1958418	 63.3318715	 57.8584537	 57.8624310
0.9000	 62.4190141	 55.2678983	 52.8695025	 64.2915889	 59.2173086	 59.5925622	 46.9086087	 54.7462956	 57.0168425	 64.3635773	 58.7138931	 58.7849600
0.9100	 63.4188117	 56.3051070	 53.8856929	 65.4336968	 60.1196174	 60.4352381	 47.5285823	 55.6633485	 57.8072856	 65.3807287	 59.5461983	 59.6747187
0.9200	 64.3861365	 57.3054421	 54.8722918	 66.5330702	 60.9808008	 61.2548600	 48.2198237	 56.5464239	 58.5790153	 66.3470104	 60.3671352	 60.5435410
0.9300	 65.3299814	 58.2949588	 55.8399137	 67.6089821	 61.8391621	 62.0543933	 48.9425843	 57.4299191	 59.3231127	 67.2981230	 61.1725732	 61.3751913
0.9400	 66.2580969	 59.2536918	 56.7799322	 68.6660038	 62.6764157	 62.8330978	 49.5712247	 58.2809429	 60.0506655	 68.2483090	 61.9397204	 62.2109722
0.9500	 67.1651086	 60.1911125	 57.7069634	 69.6787260	 63.4850684	 63.5894113	 50.1121167	 59.1040423	 60.7392047	 69.1586650	 62.6837246	 62.9951720
0.9600	 68.0369125	 61.1012016	 58.5968748	 70.6671900	 64.2700629	 64.3248890	 50.7054031	 59.9016591	 61.4322129	 70.0321372	 63.4194112	 63.7715816
0.9700	 68.8910403	 61.9822067	 59.4706702	 71.6259323	 65.0176046	 65.0222527	 51.3573501	 60.6777740	 62.0716857	 70.8918451	 64.1338851	 64.5169217
0.9800	 69.7205662	 62.8423232	 60.3187513	 72.5606119	 65.7553357	 65.7240910	 51.9229317	 61.4317892	 62.7057128	 71.7449843	 64.8232937	 65.2491521
0.9900	 70.5384915	 63.7035095	 61.1543283	 73.4634840	 66.4736878	 66.3929248	 52.3944393	 62.1635850	 63.3139123	 72.5604132	 65.4909670	 65.9564213
1.0000	 71.3303316	 64.5149847	 61.9633397	 74.3536779	 67.1647767	 67.0413951	 52.9149599	 62.8684537	 63.9082852	 73.3571549	 66.1492627	 66.6465136
1.0100	 72.0849081	 65.3041188	 62.7399017	 75.1989704	 67.8362349	 67.6663378	 53.4848866	 63.5510295	 64.4907966	 74.1239052	 66.7793758	 67.3072724
1.0200	 72.8156692	 66.0922536	 63.5084662	 76.0284247	 68.4847343	 68.2784705	 54.0242530	 64.2271343	 65.0536096	 74.8654579	 67.4189524	 67.9509343
1.0300	 73.5480992	 66.8583327	 64.2559215	 76.8403925	 69.1254732	 68.8672839	 54.4532767	 64.8790647	 65.5966756	 75.6115285	 68.0129338	 68.5743730
1.0400	 74.2377050	 67.5837956	 64.9916812	 77.6134463	 69.7455460	 69.4254984	 54.8640815	 65.5132576	 66.1258806	 76.3156928	 68.5823673	 69.1755423
1.0500	 74.9157456	 68.2851931	 65.6804038	 78.3544189	 70.3346662	 69.9666202	 55.3628292	 66.1135098	 66.6213933	 77.0171008	 69.1526002	 69.7580347
1.0600	 75.5668562	 68.9814143	 66.3772771	 79.0941800	 70.9179310	 70.5010463	 55.8584470	 66.7039586	 67.1262346	 77.6910727	 69.7035931	 70.3296834
1.0700	 76.2125813	 69.6570315	 67.0455557	 79.8055269	 71.4821226	 71.0225673	 56.2334313	 67.2817294	 67.5977090	 78.3573737	 70.2492416	 70.8897875
1.0800	 76.8304382	 70.3139689	 67.7008759	 80.4850162	 72.0160456	 71.5329678	 56.5854818	 67.8324033	 68.0446709	 79.0032521	 70.7606736	 71.4222965
1.0900	 77.4136063	 70.9472473	 68.3185266	 81.1447532	 72.5397209	 71.9989341	 57.0190743	 68.3735283	 68.4921584	 79.6082110	 71.2550462	 71.9329467
1.1000	 77.9920944	 71.5549804	 68.9241436	 81.7994805	 73.0398785	 72.4641113	 57.4741184	 68.9041783	 68.9560595	 80.2161900	 71.7547360	 72.4384873
1.1100	 78.5553225	 72.1636465	 69.5311686	 82.4299114	 73.5363281	 72.9096174	 57.8186371	 69.4025000	 69.3876418	 80.8093331	 72.2281193	 72.9294597
1.1200	 79.0982225	 72.7656920	 70.0884052	 83.0466266	 74.0071147	 73.3548048	 58.1108743	 69.9059849	 69.7745036	 81.4083844	 72.6908341	 73.4030742
1.1300	 79.6253316	 73.3247900	 70.6531243	 83.6212728	 74.4770039	 73.7716016	 58.4877094	 70.3967414	 70.1998873	 81.9540043	 73.1338768	 73.8660731
1.1400	 80.1403848	 73.8693372	 71.1842378	 84.1957095	 74.9180408	 74.1770735	 58.9007439	 70.8594589	 70.5755143	 82.5076152	 73.5856251	 74.3093033
1.1500	 80.6298454	 74.4066557	 71.7163095	 84.7693851	 75.3682787	 74.5750338	 59.2323430	 71.3401730	 70.9606816	 83.0406093	 74.0162104	 74.7646310
1.1600	 81.1118307	 74.9307883	 72.2369305	 85.3157360	 75.7933237	 74.9668307	 59.4780429	 71.7914580	 71.3402761	 83.5431164	 74.4360089	 75.1931862
1.1700	 81.5850439	 75.4530179	 72.7403017	 85.8519400	 76.2108208	 75.3387447	 59.7905614	 72.2337923	 71.7063217	 84.0478928	 74.8503077	 75.6178172
1.1800	 82.0425590	 75.9633610	 73.2265585	 86.3799758	 76.6101244	 75.7111605	 60.1738180	 72.6763238	 72.0887505	 84.5792586	 75.2578538	 76.0371561
1.1900	 82.5017185	 76.4621760	 73.7133923	 86.9072351	 77.0125617	 76.0789806	 60.5038732	 73.0925399	 72.4545342	 85.0902760	 75.6590913	 76.4441206
1.2000	 82.9428816	 76.9399747	 74.1897625	 87.4250028	 77.4122992	 76.4345908	 60.7440139	 73.5314869	 72.8085006	 85.5700122	 76.0446576	 76.8479757
